time(sec.) 	 T(degreeC.) 	 Q(W.) 
0 	 17.859000 	 45.000000 
1 	 17.878000 	 45.000000 
2 	 17.898000 	 45.000000 
3 	 17.907000 	 45.000000 
4 	 17.924000 	 45.000000 
5 	 17.944000 	 45.000000 
6 	 17.960000 	 45.000000 
7 	 17.980000 	 45.000000 
8 	 17.989000 	 45.000000 
9 	 18.002000 	 45.000000 
10 	 18.012000 	 45.000000 
11 	 18.023000 	 45.000000 
12 	 18.035000 	 45.000000 
13 	 18.057000 	 45.000000 
14 	 18.071000 	 45.000000 
15 	 18.083000 	 45.000000 
16 	 18.118000 	 45.000000 
17 	 18.136000 	 45.000000 
18 	 18.166000 	 45.000000 
19 	 18.181000 	 45.000000 
20 	 18.205000 	 45.000000 
21 	 18.217000 	 45.000000 
22 	 18.218000 	 45.000000 
23 	 18.235000 	 45.000000 
24 	 18.258000 	 45.000000 
25 	 18.285000 	 45.000000 
26 	 18.297000 	 45.000000 
27 	 18.334000 	 45.000000 
28 	 18.399000 	 45.000000 
29 	 18.418000 	 45.000000 
30 	 18.442000 	 45.000000 
31 	 18.444000 	 45.000000 
32 	 18.464000 	 45.000000 
33 	 18.515000 	 45.000000 
34 	 18.521000 	 45.000000 
35 	 18.527000 	 45.000000 
36 	 18.538000 	 45.000000 
37 	 18.559000 	 45.000000 
38 	 18.586000 	 45.000000 
39 	 18.628000 	 45.000000 
40 	 18.645000 	 45.000000 
41 	 18.655000 	 45.000000 
42 	 18.684000 	 45.000000 
43 	 18.746000 	 45.000000 
44 	 18.773000 	 45.000000 
45 	 18.776000 	 45.000000 
46 	 18.809000 	 45.000000 
47 	 18.836000 	 45.000000 
48 	 18.845000 	 45.000000 
49 	 18.851000 	 45.000000 
50 	 18.891000 	 45.000000 
51 	 18.901000 	 45.000000 
52 	 18.946000 	 45.000000 
53 	 18.965000 	 45.000000 
54 	 18.971000 	 45.000000 
55 	 18.986000 	 45.000000 
56 	 18.996000 	 45.000000 
57 	 19.014000 	 45.000000 
58 	 19.026000 	 45.000000 
59 	 19.087000 	 45.000000 
60 	 19.151000 	 45.000000 
61 	 19.219000 	 45.000000 
62 	 19.238000 	 45.000000 
63 	 19.273000 	 45.000000 
64 	 19.305000 	 45.000000 
65 	 19.350000 	 45.000000 
66 	 19.357000 	 45.000000 
67 	 19.328000 	 45.000000 
68 	 19.342000 	 45.000000 
69 	 19.370000 	 45.000000 
70 	 19.381000 	 45.000000 
71 	 19.381000 	 45.000000 
72 	 19.392000 	 45.000000 
73 	 19.404000 	 45.000000 
74 	 19.446000 	 45.000000 
75 	 19.502000 	 45.000000 
76 	 19.521000 	 45.000000 
77 	 19.563000 	 45.000000 
78 	 19.589000 	 45.000000 
79 	 19.610000 	 45.000000 
80 	 19.604000 	 45.000000 
81 	 19.632000 	 45.000000 
82 	 19.658000 	 45.000000 
83 	 19.687000 	 45.000000 
84 	 19.700000 	 45.000000 
85 	 19.688000 	 45.000000 
86 	 19.720000 	 45.000000 
87 	 19.759000 	 45.000000 
88 	 19.808000 	 45.000000 
89 	 19.879000 	 45.000000 
90 	 19.931000 	 45.000000 
91 	 19.984000 	 45.000000 
92 	 19.990000 	 45.000000 
93 	 20.020000 	 45.000000 
94 	 20.012000 	 45.000000 
95 	 20.057000 	 45.000000 
96 	 20.058000 	 45.000000 
97 	 20.050000 	 45.000000 
98 	 20.068000 	 45.000000 
99 	 20.110000 	 45.000000 
100 	 20.154000 	 45.000000 
101 	 20.180000 	 45.000000 
102 	 20.162000 	 45.000000 
103 	 20.162000 	 45.000000 
104 	 20.232000 	 45.000000 
105 	 20.327000 	 45.000000 
106 	 20.362000 	 45.000000 
107 	 20.394000 	 45.000000 
108 	 20.381000 	 45.000000 
109 	 20.405000 	 45.000000 
110 	 20.423000 	 45.000000 
111 	 20.444000 	 45.000000 
112 	 20.489000 	 45.000000 
113 	 20.526000 	 45.000000 
114 	 20.587000 	 45.000000 
115 	 20.587000 	 45.000000 
116 	 20.619000 	 45.000000 
117 	 20.622000 	 45.000000 
118 	 20.656000 	 45.000000 
119 	 20.703000 	 45.000000 
120 	 20.714000 	 45.000000 
121 	 20.741000 	 45.000000 
122 	 20.755000 	 45.000000 
123 	 20.778000 	 45.000000 
124 	 20.786000 	 45.000000 
125 	 20.801000 	 45.000000 
126 	 20.820000 	 45.000000 
127 	 20.845000 	 45.000000 
128 	 20.899000 	 45.000000 
129 	 20.919000 	 45.000000 
130 	 20.959000 	 45.000000 
131 	 20.962000 	 45.000000 
132 	 20.967000 	 45.000000 
133 	 20.954000 	 45.000000 
134 	 20.959000 	 45.000000 
135 	 20.993000 	 45.000000 
136 	 21.050000 	 45.000000 
137 	 21.137000 	 45.000000 
138 	 21.177000 	 45.000000 
139 	 21.211000 	 45.000000 
140 	 21.257000 	 45.000000 
141 	 21.274000 	 45.000000 
142 	 21.345000 	 45.000000 
143 	 21.323000 	 45.000000 
144 	 21.322000 	 45.000000 
145 	 21.324000 	 45.000000 
146 	 21.339000 	 45.000000 
147 	 21.383000 	 45.000000 
148 	 21.431000 	 45.000000 
149 	 21.446000 	 45.000000 
150 	 21.421000 	 45.000000 
151 	 21.411000 	 45.000000 
152 	 21.431000 	 45.000000 
153 	 21.439000 	 45.000000 
154 	 21.519000 	 45.000000 
155 	 21.550000 	 45.000000 
156 	 21.581000 	 45.000000 
157 	 21.564000 	 45.000000 
158 	 21.564000 	 45.000000 
159 	 21.540000 	 45.000000 
160 	 21.511000 	 45.000000 
161 	 21.554000 	 45.000000 
162 	 21.606000 	 45.000000 
163 	 21.611000 	 45.000000 
164 	 21.619000 	 45.000000 
165 	 21.654000 	 45.000000 
166 	 21.657000 	 45.000000 
167 	 21.662000 	 45.000000 
168 	 21.663000 	 45.000000 
169 	 21.719000 	 45.000000 
170 	 21.768000 	 45.000000 
171 	 21.776000 	 45.000000 
172 	 21.772000 	 45.000000 
173 	 21.797000 	 45.000000 
174 	 21.836000 	 45.000000 
175 	 21.892000 	 45.000000 
176 	 21.897000 	 45.000000 
177 	 21.918000 	 45.000000 
178 	 21.931000 	 45.000000 
179 	 21.957000 	 45.000000 
180 	 21.935000 	 45.000000 
181 	 21.940000 	 45.000000 
182 	 21.974000 	 45.000000 
183 	 22.033000 	 45.000000 
184 	 22.115000 	 45.000000 
185 	 22.143000 	 45.000000 
186 	 22.187000 	 45.000000 
187 	 22.177000 	 45.000000 
188 	 22.159000 	 45.000000 
189 	 22.184000 	 45.000000 
190 	 22.175000 	 45.000000 
191 	 22.191000 	 45.000000 
192 	 22.247000 	 45.000000 
193 	 22.252000 	 45.000000 
194 	 22.339000 	 45.000000 
195 	 22.377000 	 45.000000 
196 	 22.388000 	 45.000000 
197 	 22.380000 	 45.000000 
198 	 22.348000 	 45.000000 
199 	 22.352000 	 45.000000 
200 	 22.390000 	 45.000000 
201 	 22.376000 	 45.000000 
202 	 22.430000 	 45.000000 
203 	 22.476000 	 45.000000 
204 	 22.496000 	 45.000000 
205 	 22.510000 	 45.000000 
206 	 22.523000 	 45.000000 
207 	 22.517000 	 45.000000 
208 	 22.517000 	 45.000000 
209 	 22.559000 	 45.000000 
210 	 22.540000 	 45.000000 
211 	 22.578000 	 45.000000 
212 	 22.606000 	 45.000000 
213 	 22.621000 	 45.000000 
214 	 22.664000 	 45.000000 
215 	 22.684000 	 45.000000 
216 	 22.728000 	 45.000000 
217 	 22.761000 	 45.000000 
218 	 22.779000 	 45.000000 
219 	 22.807000 	 45.000000 
220 	 22.822000 	 45.000000 
221 	 22.783000 	 45.000000 
222 	 22.788000 	 45.000000 
223 	 22.847000 	 45.000000 
224 	 22.873000 	 45.000000 
225 	 22.938000 	 45.000000 
226 	 22.939000 	 45.000000 
227 	 22.994000 	 45.000000 
228 	 22.998000 	 45.000000 
229 	 23.035000 	 45.000000 
230 	 23.037000 	 45.000000 
231 	 23.040000 	 45.000000 
232 	 23.046000 	 45.000000 
233 	 23.049000 	 45.000000 
234 	 23.095000 	 45.000000 
235 	 23.156000 	 45.000000 
236 	 23.224000 	 45.000000 
237 	 23.231000 	 45.000000 
238 	 23.175000 	 45.000000 
239 	 23.151000 	 45.000000 
240 	 23.190000 	 45.000000 
241 	 23.231000 	 45.000000 
242 	 23.243000 	 45.000000 
243 	 23.301000 	 45.000000 
244 	 23.337000 	 45.000000 
245 	 23.326000 	 45.000000 
246 	 23.301000 	 45.000000 
247 	 23.283000 	 45.000000 
248 	 23.322000 	 45.000000 
249 	 23.333000 	 45.000000 
250 	 23.375000 	 45.000000 
251 	 23.444000 	 45.000000 
252 	 23.483000 	 45.000000 
253 	 23.491000 	 45.000000 
254 	 23.480000 	 45.000000 
255 	 23.448000 	 45.000000 
256 	 23.395000 	 45.000000 
257 	 23.392000 	 45.000000 
258 	 23.488000 	 45.000000 
259 	 23.521000 	 45.000000 
260 	 23.520000 	 45.000000 
261 	 23.537000 	 45.000000 
262 	 23.551000 	 45.000000 
263 	 23.624000 	 45.000000 
264 	 23.666000 	 45.000000 
265 	 23.690000 	 45.000000 
266 	 23.654000 	 45.000000 
267 	 23.650000 	 45.000000 
268 	 23.655000 	 45.000000 
269 	 23.692000 	 45.000000 
270 	 23.715000 	 45.000000 
271 	 23.760000 	 45.000000 
272 	 23.702000 	 45.000000 
273 	 23.658000 	 45.000000 
274 	 23.635000 	 45.000000 
275 	 23.649000 	 45.000000 
276 	 23.650000 	 45.000000 
277 	 23.669000 	 45.000000 
278 	 23.682000 	 45.000000 
279 	 23.729000 	 45.000000 
280 	 23.733000 	 45.000000 
281 	 23.741000 	 45.000000 
282 	 23.796000 	 45.000000 
283 	 23.819000 	 45.000000 
284 	 23.808000 	 45.000000 
285 	 23.825000 	 45.000000 
286 	 23.869000 	 45.000000 
287 	 23.917000 	 45.000000 
288 	 23.934000 	 45.000000 
289 	 23.928000 	 45.000000 
290 	 23.936000 	 45.000000 
291 	 23.914000 	 45.000000 
292 	 23.886000 	 45.000000 
293 	 23.920000 	 45.000000 
294 	 23.970000 	 45.000000 
295 	 24.016000 	 45.000000 
296 	 24.014000 	 45.000000 
297 	 24.045000 	 45.000000 
298 	 24.107000 	 45.000000 
299 	 24.101000 	 45.000000 
300 	 24.105000 	 45.000000 
301 	 24.185000 	 45.000000 
302 	 24.219000 	 45.000000 
303 	 24.182000 	 45.000000 
304 	 24.142000 	 45.000000 
305 	 24.130000 	 45.000000 
306 	 24.181000 	 45.000000 
307 	 24.190000 	 45.000000 
308 	 24.246000 	 45.000000 
309 	 24.303000 	 45.000000 
310 	 24.335000 	 45.000000 
311 	 24.368000 	 45.000000 
312 	 24.389000 	 45.000000 
313 	 24.413000 	 45.000000 
314 	 24.422000 	 45.000000 
315 	 24.394000 	 45.000000 
316 	 24.428000 	 45.000000 
317 	 24.444000 	 45.000000 
318 	 24.439000 	 45.000000 
319 	 24.435000 	 45.000000 
320 	 24.402000 	 45.000000 
321 	 24.462000 	 45.000000 
322 	 24.514000 	 45.000000 
323 	 24.545000 	 45.000000 
324 	 24.557000 	 45.000000 
325 	 24.543000 	 45.000000 
326 	 24.527000 	 45.000000 
327 	 24.517000 	 45.000000 
328 	 24.561000 	 45.000000 
329 	 24.545000 	 45.000000 
330 	 24.544000 	 45.000000 
331 	 24.606000 	 45.000000 
332 	 24.671000 	 45.000000 
333 	 24.654000 	 45.000000 
334 	 24.639000 	 45.000000 
335 	 24.607000 	 45.000000 
336 	 24.595000 	 45.000000 
337 	 24.628000 	 45.000000 
338 	 24.655000 	 45.000000 
339 	 24.670000 	 45.000000 
340 	 24.657000 	 45.000000 
341 	 24.702000 	 45.000000 
342 	 24.728000 	 45.000000 
343 	 24.811000 	 45.000000 
344 	 24.906000 	 45.000000 
345 	 24.900000 	 45.000000 
346 	 24.891000 	 45.000000 
347 	 24.850000 	 45.000000 
348 	 24.893000 	 45.000000 
349 	 24.899000 	 45.000000 
350 	 24.898000 	 45.000000 
351 	 24.883000 	 45.000000 
352 	 24.890000 	 45.000000 
353 	 24.881000 	 45.000000 
354 	 24.863000 	 45.000000 
355 	 24.869000 	 45.000000 
356 	 24.909000 	 45.000000 
357 	 25.017000 	 45.000000 
358 	 25.080000 	 45.000000 
359 	 25.055000 	 45.000000 
360 	 25.047000 	 45.000000 
361 	 25.060000 	 45.000000 
362 	 25.041000 	 45.000000 
363 	 25.039000 	 45.000000 
364 	 25.039000 	 45.000000 
365 	 25.092000 	 45.000000 
366 	 25.107000 	 45.000000 
367 	 25.108000 	 45.000000 
368 	 25.113000 	 45.000000 
369 	 25.110000 	 45.000000 
370 	 25.184000 	 45.000000 
371 	 25.246000 	 45.000000 
372 	 25.247000 	 45.000000 
373 	 25.226000 	 45.000000 
374 	 25.217000 	 45.000000 
375 	 25.178000 	 45.000000 
376 	 25.194000 	 45.000000 
377 	 25.213000 	 45.000000 
378 	 25.258000 	 45.000000 
379 	 25.268000 	 45.000000 
380 	 25.309000 	 45.000000 
381 	 25.319000 	 45.000000 
382 	 25.294000 	 45.000000 
383 	 25.312000 	 45.000000 
384 	 25.315000 	 45.000000 
385 	 25.312000 	 45.000000 
386 	 25.375000 	 45.000000 
387 	 25.395000 	 45.000000 
388 	 25.424000 	 45.000000 
389 	 25.429000 	 45.000000 
390 	 25.420000 	 45.000000 
391 	 25.441000 	 45.000000 
392 	 25.519000 	 45.000000 
393 	 25.513000 	 45.000000 
394 	 25.481000 	 45.000000 
395 	 25.507000 	 45.000000 
396 	 25.558000 	 45.000000 
397 	 25.564000 	 45.000000 
398 	 25.648000 	 45.000000 
399 	 25.684000 	 45.000000 
400 	 25.624000 	 45.000000 
401 	 25.569000 	 45.000000 
402 	 25.541000 	 45.000000 
403 	 25.520000 	 45.000000 
404 	 25.532000 	 45.000000 
405 	 25.504000 	 45.000000 
406 	 25.507000 	 45.000000 
407 	 25.522000 	 45.000000 
408 	 25.524000 	 45.000000 
409 	 25.607000 	 45.000000 
410 	 25.635000 	 45.000000 
411 	 25.669000 	 45.000000 
412 	 25.676000 	 45.000000 
413 	 25.695000 	 45.000000 
414 	 25.718000 	 45.000000 
415 	 25.705000 	 45.000000 
416 	 25.699000 	 45.000000 
417 	 25.716000 	 45.000000 
418 	 25.728000 	 45.000000 
419 	 25.747000 	 45.000000 
420 	 25.814000 	 45.000000 
421 	 25.894000 	 45.000000 
422 	 25.991000 	 45.000000 
423 	 26.019000 	 45.000000 
424 	 26.027000 	 45.000000 
425 	 26.019000 	 45.000000 
426 	 26.002000 	 45.000000 
427 	 26.003000 	 45.000000 
428 	 26.003000 	 45.000000 
429 	 25.994000 	 45.000000 
430 	 25.949000 	 45.000000 
431 	 25.954000 	 45.000000 
432 	 25.933000 	 45.000000 
433 	 25.879000 	 45.000000 
434 	 25.873000 	 45.000000 
435 	 25.887000 	 45.000000 
436 	 25.927000 	 45.000000 
437 	 25.996000 	 45.000000 
438 	 26.029000 	 45.000000 
439 	 26.040000 	 45.000000 
440 	 26.013000 	 45.000000 
441 	 26.021000 	 45.000000 
442 	 25.977000 	 45.000000 
443 	 25.951000 	 45.000000 
444 	 25.924000 	 45.000000 
445 	 25.912000 	 45.000000 
446 	 25.968000 	 45.000000 
447 	 26.025000 	 45.000000 
448 	 26.065000 	 45.000000 
449 	 26.078000 	 45.000000 
450 	 26.085000 	 45.000000 
451 	 26.103000 	 45.000000 
452 	 26.119000 	 45.000000 
453 	 26.201000 	 45.000000 
454 	 26.227000 	 45.000000 
455 	 26.217000 	 45.000000 
456 	 26.244000 	 45.000000 
457 	 26.272000 	 45.000000 
458 	 26.234000 	 45.000000 
459 	 26.217000 	 45.000000 
460 	 26.249000 	 45.000000 
461 	 26.235000 	 45.000000 
462 	 26.220000 	 45.000000 
463 	 26.259000 	 45.000000 
464 	 26.345000 	 45.000000 
465 	 26.358000 	 45.000000 
466 	 26.342000 	 45.000000 
467 	 26.354000 	 45.000000 
468 	 26.372000 	 45.000000 
469 	 26.369000 	 45.000000 
470 	 26.339000 	 45.000000 
471 	 26.290000 	 45.000000 
472 	 26.331000 	 45.000000 
473 	 26.392000 	 45.000000 
474 	 26.498000 	 45.000000 
475 	 26.545000 	 45.000000 
476 	 26.591000 	 45.000000 
477 	 26.571000 	 45.000000 
478 	 26.594000 	 45.000000 
479 	 26.619000 	 45.000000 
480 	 26.617000 	 45.000000 
481 	 26.601000 	 45.000000 
482 	 26.579000 	 45.000000 
483 	 26.552000 	 45.000000 
484 	 26.520000 	 45.000000 
485 	 26.490000 	 45.000000 
486 	 26.455000 	 45.000000 
487 	 26.473000 	 45.000000 
488 	 26.535000 	 45.000000 
489 	 26.569000 	 45.000000 
490 	 26.598000 	 45.000000 
491 	 26.566000 	 45.000000 
492 	 26.562000 	 45.000000 
493 	 26.583000 	 45.000000 
494 	 26.542000 	 45.000000 
495 	 26.469000 	 45.000000 
496 	 26.495000 	 45.000000 
497 	 26.534000 	 45.000000 
498 	 26.616000 	 45.000000 
499 	 26.672000 	 45.000000 
500 	 26.601000 	 45.000000 
501 	 26.633000 	 45.000000 
502 	 26.615000 	 45.000000 
503 	 26.711000 	 45.000000 
504 	 26.795000 	 45.000000 
505 	 26.806000 	 45.000000 
506 	 26.831000 	 45.000000 
507 	 26.798000 	 45.000000 
508 	 26.786000 	 45.000000 
509 	 26.798000 	 45.000000 
510 	 26.796000 	 45.000000 
511 	 26.803000 	 45.000000 
512 	 26.825000 	 45.000000 
513 	 26.901000 	 45.000000 
514 	 26.921000 	 45.000000 
515 	 26.871000 	 45.000000 
516 	 26.855000 	 45.000000 
517 	 26.862000 	 45.000000 
518 	 26.856000 	 45.000000 
519 	 26.837000 	 45.000000 
520 	 26.824000 	 45.000000 
521 	 26.806000 	 45.000000 
522 	 26.762000 	 45.000000 
523 	 26.812000 	 45.000000 
524 	 26.825000 	 45.000000 
525 	 26.884000 	 45.000000 
526 	 26.934000 	 45.000000 
527 	 26.952000 	 45.000000 
528 	 26.948000 	 45.000000 
529 	 26.913000 	 45.000000 
530 	 26.892000 	 45.000000 
531 	 26.865000 	 45.000000 
532 	 26.830000 	 45.000000 
533 	 26.906000 	 45.000000 
534 	 26.923000 	 45.000000 
535 	 26.951000 	 45.000000 
536 	 26.989000 	 45.000000 
537 	 26.983000 	 45.000000 
538 	 26.984000 	 45.000000 
539 	 27.001000 	 45.000000 
540 	 27.009000 	 45.000000 
541 	 26.977000 	 45.000000 
542 	 27.015000 	 45.000000 
543 	 27.073000 	 45.000000 
544 	 27.076000 	 45.000000 
545 	 27.104000 	 45.000000 
546 	 27.078000 	 45.000000 
547 	 27.056000 	 45.000000 
548 	 27.083000 	 45.000000 
549 	 27.104000 	 45.000000 
550 	 27.145000 	 45.000000 
551 	 27.118000 	 45.000000 
552 	 27.124000 	 45.000000 
553 	 27.113000 	 45.000000 
554 	 27.117000 	 45.000000 
555 	 27.114000 	 45.000000 
556 	 27.091000 	 45.000000 
557 	 27.070000 	 45.000000 
558 	 27.030000 	 45.000000 
559 	 27.093000 	 45.000000 
560 	 27.093000 	 45.000000 
561 	 27.107000 	 45.000000 
562 	 27.152000 	 45.000000 
563 	 27.178000 	 45.000000 
564 	 27.221000 	 45.000000 
565 	 27.252000 	 45.000000 
566 	 27.247000 	 45.000000 
567 	 27.160000 	 45.000000 
568 	 27.122000 	 45.000000 
569 	 27.191000 	 45.000000 
570 	 27.176000 	 45.000000 
571 	 27.193000 	 45.000000 
572 	 27.212000 	 45.000000 
573 	 27.204000 	 45.000000 
574 	 27.224000 	 45.000000 
575 	 27.253000 	 45.000000 
576 	 27.336000 	 45.000000 
577 	 27.397000 	 45.000000 
578 	 27.399000 	 45.000000 
579 	 27.352000 	 45.000000 
580 	 27.379000 	 45.000000 
581 	 27.369000 	 45.000000 
582 	 27.335000 	 45.000000 
583 	 27.350000 	 45.000000 
584 	 27.373000 	 45.000000 
585 	 27.404000 	 45.000000 
586 	 27.374000 	 45.000000 
587 	 27.395000 	 45.000000 
588 	 27.411000 	 45.000000 
589 	 27.425000 	 45.000000 
590 	 27.417000 	 45.000000 
591 	 27.423000 	 45.000000 
592 	 27.407000 	 45.000000 
593 	 27.421000 	 45.000000 
594 	 27.443000 	 45.000000 
595 	 27.511000 	 45.000000 
596 	 27.503000 	 45.000000 
597 	 27.459000 	 45.000000 
598 	 27.432000 	 45.000000 
599 	 27.401000 	 45.000000 
600 	 27.404000 	 45.000000 
601 	 27.465000 	 45.000000 
602 	 27.468000 	 45.000000 
603 	 27.503000 	 45.000000 
604 	 27.483000 	 45.000000 
605 	 27.497000 	 45.000000 
606 	 27.484000 	 45.000000 
607 	 27.502000 	 45.000000 
608 	 27.522000 	 45.000000 
609 	 27.523000 	 45.000000 
610 	 27.478000 	 45.000000 
611 	 27.508000 	 45.000000 
612 	 27.505000 	 45.000000 
613 	 27.518000 	 45.000000 
614 	 27.482000 	 45.000000 
615 	 27.488000 	 45.000000 
616 	 27.538000 	 45.000000 
617 	 27.635000 	 45.000000 
618 	 27.704000 	 45.000000 
619 	 27.707000 	 45.000000 
620 	 27.707000 	 45.000000 
621 	 27.768000 	 45.000000 
622 	 27.790000 	 45.000000 
623 	 27.812000 	 45.000000 
624 	 27.813000 	 45.000000 
625 	 27.789000 	 45.000000 
626 	 27.782000 	 45.000000 
627 	 27.805000 	 45.000000 
628 	 27.785000 	 45.000000 
629 	 27.709000 	 45.000000 
630 	 27.674000 	 45.000000 
631 	 27.718000 	 45.000000 
632 	 27.846000 	 45.000000 
633 	 27.967000 	 45.000000 
634 	 27.983000 	 45.000000 
635 	 27.983000 	 45.000000 
636 	 28.036000 	 45.000000 
637 	 28.036000 	 45.000000 
638 	 27.999000 	 45.000000 
639 	 27.974000 	 45.000000 
640 	 27.923000 	 45.000000 
641 	 27.907000 	 45.000000 
642 	 27.849000 	 45.000000 
643 	 27.806000 	 45.000000 
644 	 27.779000 	 45.000000 
645 	 27.780000 	 45.000000 
646 	 27.804000 	 45.000000 
647 	 27.798000 	 45.000000 
648 	 27.807000 	 45.000000 
649 	 27.955000 	 45.000000 
650 	 27.961000 	 45.000000 
651 	 28.008000 	 45.000000 
652 	 28.037000 	 45.000000 
653 	 28.067000 	 45.000000 
654 	 28.069000 	 45.000000 
655 	 28.071000 	 45.000000 
656 	 28.073000 	 45.000000 
657 	 28.084000 	 45.000000 
658 	 28.108000 	 45.000000 
659 	 28.041000 	 45.000000 
660 	 27.973000 	 45.000000 
661 	 27.762000 	 45.000000 
662 	 27.828000 	 45.000000 
663 	 27.888000 	 45.000000 
664 	 27.941000 	 45.000000 
665 	 27.903000 	 45.000000 
666 	 27.876000 	 45.000000 
667 	 27.913000 	 45.000000 
668 	 27.938000 	 45.000000 
669 	 27.965000 	 45.000000 
670 	 27.977000 	 45.000000 
671 	 28.006000 	 45.000000 
672 	 28.074000 	 45.000000 
673 	 28.061000 	 45.000000 
674 	 28.045000 	 45.000000 
675 	 28.030000 	 45.000000 
676 	 28.013000 	 45.000000 
677 	 28.035000 	 45.000000 
678 	 28.009000 	 45.000000 
679 	 27.988000 	 45.000000 
680 	 28.009000 	 45.000000 
681 	 27.965000 	 45.000000 
682 	 27.944000 	 45.000000 
683 	 27.986000 	 45.000000 
684 	 27.993000 	 45.000000 
685 	 28.011000 	 45.000000 
686 	 27.957000 	 45.000000 
687 	 28.038000 	 45.000000 
688 	 28.165000 	 45.000000 
689 	 28.197000 	 45.000000 
690 	 28.214000 	 45.000000 
691 	 28.164000 	 45.000000 
692 	 28.224000 	 45.000000 
693 	 28.219000 	 45.000000 
694 	 28.153000 	 45.000000 
695 	 28.166000 	 45.000000 
696 	 28.220000 	 45.000000 
697 	 28.303000 	 45.000000 
698 	 28.337000 	 45.000000 
699 	 28.358000 	 45.000000 
700 	 28.278000 	 45.000000 
701 	 28.217000 	 45.000000 
702 	 28.154000 	 45.000000 
703 	 28.171000 	 45.000000 
704 	 28.177000 	 45.000000 
705 	 28.220000 	 45.000000 
706 	 28.209000 	 45.000000 
707 	 28.185000 	 45.000000 
708 	 28.183000 	 45.000000 
709 	 28.200000 	 45.000000 
710 	 28.223000 	 45.000000 
711 	 28.238000 	 45.000000 
712 	 28.218000 	 45.000000 
713 	 28.212000 	 45.000000 
714 	 28.226000 	 45.000000 
715 	 28.325000 	 45.000000 
716 	 28.351000 	 45.000000 
717 	 28.367000 	 45.000000 
718 	 28.414000 	 45.000000 
719 	 28.465000 	 45.000000 
720 	 28.497000 	 45.000000 
721 	 28.490000 	 45.000000 
722 	 28.472000 	 45.000000 
723 	 28.497000 	 45.000000 
724 	 28.479000 	 45.000000 
725 	 28.483000 	 45.000000 
726 	 28.451000 	 45.000000 
727 	 28.480000 	 45.000000 
728 	 28.483000 	 45.000000 
729 	 28.438000 	 45.000000 
730 	 28.460000 	 45.000000 
731 	 28.460000 	 45.000000 
732 	 28.450000 	 45.000000 
733 	 28.419000 	 45.000000 
734 	 28.455000 	 45.000000 
735 	 28.442000 	 45.000000 
736 	 28.464000 	 45.000000 
737 	 28.494000 	 45.000000 
738 	 28.516000 	 45.000000 
739 	 28.551000 	 45.000000 
740 	 28.550000 	 45.000000 
741 	 28.521000 	 45.000000 
742 	 28.470000 	 45.000000 
743 	 28.475000 	 45.000000 
744 	 28.497000 	 45.000000 
745 	 28.514000 	 45.000000 
746 	 28.547000 	 45.000000 
747 	 28.581000 	 45.000000 
748 	 28.601000 	 45.000000 
749 	 28.616000 	 45.000000 
750 	 28.634000 	 45.000000 
751 	 28.608000 	 45.000000 
752 	 28.590000 	 45.000000 
753 	 28.611000 	 45.000000 
754 	 28.589000 	 45.000000 
755 	 28.510000 	 45.000000 
756 	 28.535000 	 45.000000 
757 	 28.664000 	 45.000000 
758 	 28.692000 	 45.000000 
759 	 28.678000 	 45.000000 
760 	 28.680000 	 45.000000 
761 	 28.626000 	 45.000000 
762 	 28.664000 	 45.000000 
763 	 28.661000 	 45.000000 
764 	 28.681000 	 45.000000 
765 	 28.713000 	 45.000000 
766 	 28.676000 	 45.000000 
767 	 28.678000 	 45.000000 
768 	 28.702000 	 45.000000 
769 	 28.692000 	 45.000000 
770 	 28.640000 	 45.000000 
771 	 28.643000 	 45.000000 
772 	 28.689000 	 45.000000 
773 	 28.675000 	 45.000000 
774 	 28.679000 	 45.000000 
775 	 28.681000 	 45.000000 
776 	 28.638000 	 45.000000 
777 	 28.623000 	 45.000000 
778 	 28.590000 	 45.000000 
779 	 28.526000 	 45.000000 
780 	 28.549000 	 45.000000 
781 	 28.587000 	 45.000000 
782 	 28.601000 	 45.000000 
783 	 28.686000 	 45.000000 
784 	 28.732000 	 45.000000 
785 	 28.759000 	 45.000000 
786 	 28.790000 	 45.000000 
787 	 28.765000 	 45.000000 
788 	 28.805000 	 45.000000 
789 	 28.802000 	 45.000000 
790 	 28.740000 	 45.000000 
791 	 28.697000 	 45.000000 
792 	 28.698000 	 45.000000 
793 	 28.684000 	 45.000000 
794 	 28.709000 	 45.000000 
795 	 28.743000 	 45.000000 
796 	 28.761000 	 45.000000 
797 	 28.788000 	 45.000000 
798 	 28.822000 	 45.000000 
799 	 28.813000 	 45.000000 
800 	 28.843000 	 45.000000 
801 	 28.785000 	 45.000000 
802 	 28.754000 	 45.000000 
803 	 28.790000 	 45.000000 
804 	 28.843000 	 45.000000 
805 	 28.887000 	 45.000000 
806 	 28.872000 	 45.000000 
807 	 28.890000 	 45.000000 
808 	 28.924000 	 45.000000 
809 	 28.888000 	 45.000000 
810 	 28.856000 	 45.000000 
811 	 28.881000 	 45.000000 
812 	 28.888000 	 45.000000 
813 	 28.846000 	 45.000000 
814 	 28.827000 	 45.000000 
815 	 28.834000 	 45.000000 
816 	 28.883000 	 45.000000 
817 	 28.908000 	 45.000000 
818 	 28.871000 	 45.000000 
819 	 28.854000 	 45.000000 
820 	 28.870000 	 45.000000 
821 	 28.875000 	 45.000000 
822 	 28.874000 	 45.000000 
823 	 28.878000 	 45.000000 
824 	 28.893000 	 45.000000 
825 	 28.880000 	 45.000000 
826 	 28.921000 	 45.000000 
827 	 28.968000 	 45.000000 
828 	 28.983000 	 45.000000 
829 	 28.962000 	 45.000000 
830 	 28.919000 	 45.000000 
831 	 28.941000 	 45.000000 
832 	 28.939000 	 45.000000 
833 	 28.924000 	 45.000000 
834 	 28.923000 	 45.000000 
835 	 28.946000 	 45.000000 
836 	 28.936000 	 45.000000 
837 	 28.868000 	 45.000000 
838 	 28.843000 	 45.000000 
839 	 28.934000 	 45.000000 
840 	 28.988000 	 45.000000 
841 	 28.991000 	 45.000000 
842 	 29.021000 	 45.000000 
843 	 29.052000 	 45.000000 
844 	 29.075000 	 45.000000 
845 	 29.058000 	 45.000000 
846 	 28.998000 	 45.000000 
847 	 28.931000 	 45.000000 
848 	 28.888000 	 45.000000 
849 	 28.850000 	 45.000000 
850 	 28.919000 	 45.000000 
851 	 28.967000 	 45.000000 
852 	 28.976000 	 45.000000 
853 	 28.985000 	 45.000000 
854 	 28.982000 	 45.000000 
855 	 28.964000 	 45.000000 
856 	 28.981000 	 45.000000 
857 	 29.002000 	 45.000000 
858 	 29.004000 	 45.000000 
859 	 28.986000 	 45.000000 
860 	 28.993000 	 45.000000 
861 	 29.006000 	 45.000000 
862 	 29.024000 	 45.000000 
863 	 29.016000 	 45.000000 
864 	 29.003000 	 45.000000 
865 	 29.025000 	 45.000000 
866 	 29.037000 	 45.000000 
867 	 29.047000 	 45.000000 
868 	 29.045000 	 45.000000 
869 	 29.059000 	 45.000000 
870 	 29.098000 	 45.000000 
871 	 29.134000 	 45.000000 
872 	 29.123000 	 45.000000 
873 	 29.117000 	 45.000000 
874 	 29.119000 	 45.000000 
875 	 29.136000 	 45.000000 
876 	 29.129000 	 45.000000 
877 	 29.130000 	 45.000000 
878 	 29.136000 	 45.000000 
879 	 29.113000 	 45.000000 
880 	 29.149000 	 45.000000 
881 	 29.195000 	 45.000000 
882 	 29.220000 	 45.000000 
883 	 29.224000 	 45.000000 
884 	 29.218000 	 45.000000 
885 	 29.231000 	 45.000000 
886 	 29.217000 	 45.000000 
887 	 29.219000 	 45.000000 
888 	 29.228000 	 45.000000 
889 	 29.230000 	 45.000000 
890 	 29.261000 	 45.000000 
891 	 29.236000 	 45.000000 
892 	 29.183000 	 45.000000 
893 	 29.189000 	 45.000000 
894 	 29.183000 	 45.000000 
895 	 29.166000 	 45.000000 
896 	 29.186000 	 45.000000 
897 	 29.183000 	 45.000000 
898 	 29.197000 	 45.000000 
899 	 29.234000 	 45.000000 
900 	 29.226000 	 45.000000 
901 	 29.283000 	 45.000000 
902 	 29.290000 	 45.000000 
903 	 29.258000 	 45.000000 
904 	 29.181000 	 45.000000 
905 	 29.208000 	 45.000000 
906 	 29.270000 	 45.000000 
907 	 29.345000 	 45.000000 
908 	 29.392000 	 45.000000 
909 	 29.421000 	 45.000000 
910 	 29.430000 	 45.000000 
911 	 29.394000 	 45.000000 
912 	 29.400000 	 45.000000 
913 	 29.399000 	 45.000000 
914 	 29.364000 	 45.000000 
915 	 29.275000 	 45.000000 
916 	 29.308000 	 45.000000 
917 	 29.304000 	 45.000000 
918 	 29.333000 	 45.000000 
919 	 29.354000 	 45.000000 
920 	 29.360000 	 45.000000 
921 	 29.372000 	 45.000000 
922 	 29.366000 	 45.000000 
923 	 29.340000 	 45.000000 
924 	 29.363000 	 45.000000 
925 	 29.360000 	 45.000000 
926 	 29.353000 	 45.000000 
927 	 29.352000 	 45.000000 
928 	 29.333000 	 45.000000 
929 	 29.356000 	 45.000000 
930 	 29.358000 	 45.000000 
931 	 29.333000 	 45.000000 
932 	 29.358000 	 45.000000 
933 	 29.399000 	 45.000000 
934 	 29.382000 	 45.000000 
935 	 29.386000 	 45.000000 
936 	 29.391000 	 45.000000 
937 	 29.391000 	 45.000000 
938 	 29.399000 	 45.000000 
939 	 29.429000 	 45.000000 
940 	 29.474000 	 45.000000 
941 	 29.504000 	 45.000000 
942 	 29.455000 	 45.000000 
943 	 29.429000 	 45.000000 
944 	 29.390000 	 45.000000 
945 	 29.367000 	 45.000000 
946 	 29.356000 	 45.000000 
947 	 29.367000 	 45.000000 
948 	 29.355000 	 45.000000 
949 	 29.302000 	 45.000000 
950 	 29.301000 	 45.000000 
951 	 29.326000 	 45.000000 
952 	 29.380000 	 45.000000 
953 	 29.444000 	 45.000000 
954 	 29.523000 	 45.000000 
955 	 29.586000 	 45.000000 
956 	 29.592000 	 45.000000 
957 	 29.588000 	 45.000000 
958 	 29.543000 	 45.000000 
959 	 29.493000 	 45.000000 
960 	 29.476000 	 45.000000 
961 	 29.483000 	 45.000000 
962 	 29.492000 	 45.000000 
963 	 29.460000 	 45.000000 
964 	 29.442000 	 45.000000 
965 	 29.512000 	 45.000000 
966 	 29.587000 	 45.000000 
967 	 29.552000 	 45.000000 
968 	 29.512000 	 45.000000 
969 	 29.492000 	 45.000000 
970 	 29.547000 	 45.000000 
971 	 29.614000 	 45.000000 
972 	 29.614000 	 45.000000 
973 	 29.585000 	 45.000000 
974 	 29.566000 	 45.000000 
975 	 29.537000 	 45.000000 
976 	 29.554000 	 45.000000 
977 	 29.534000 	 45.000000 
978 	 29.515000 	 45.000000 
979 	 29.553000 	 45.000000 
980 	 29.589000 	 45.000000 
981 	 29.590000 	 45.000000 
982 	 29.480000 	 45.000000 
983 	 29.455000 	 45.000000 
984 	 29.476000 	 45.000000 
985 	 29.475000 	 45.000000 
986 	 29.501000 	 45.000000 
987 	 29.521000 	 45.000000 
988 	 29.561000 	 45.000000 
989 	 29.547000 	 45.000000 
990 	 29.525000 	 45.000000 
991 	 29.574000 	 45.000000 
992 	 29.623000 	 45.000000 
993 	 29.652000 	 45.000000 
994 	 29.647000 	 45.000000 
995 	 29.665000 	 45.000000 
996 	 29.640000 	 45.000000 
997 	 29.571000 	 45.000000 
998 	 29.560000 	 45.000000 
999 	 29.630000 	 45.000000 
1000 	 29.610000 	 45.000000 
1001 	 29.575000 	 45.000000 
1002 	 29.572000 	 45.000000 
1003 	 29.567000 	 45.000000 
1004 	 29.561000 	 45.000000 
1005 	 29.571000 	 45.000000 
1006 	 29.596000 	 45.000000 
1007 	 29.571000 	 45.000000 
1008 	 29.568000 	 45.000000 
1009 	 29.617000 	 45.000000 
1010 	 29.617000 	 45.000000 
1011 	 29.656000 	 45.000000 
1012 	 29.694000 	 45.000000 
1013 	 29.733000 	 45.000000 
1014 	 29.747000 	 45.000000 
1015 	 29.712000 	 45.000000 
1016 	 29.658000 	 45.000000 
1017 	 29.634000 	 45.000000 
1018 	 29.645000 	 45.000000 
1019 	 29.684000 	 45.000000 
1020 	 29.705000 	 45.000000 
1021 	 29.717000 	 45.000000 
1022 	 29.696000 	 45.000000 
1023 	 29.665000 	 45.000000 
1024 	 29.637000 	 45.000000 
1025 	 29.607000 	 45.000000 
1026 	 29.630000 	 45.000000 
1027 	 29.642000 	 45.000000 
1028 	 29.660000 	 45.000000 
1029 	 29.664000 	 45.000000 
1030 	 29.690000 	 45.000000 
1031 	 29.687000 	 45.000000 
1032 	 29.645000 	 45.000000 
1033 	 29.684000 	 45.000000 
1034 	 29.692000 	 45.000000 
1035 	 29.728000 	 45.000000 
1036 	 29.736000 	 45.000000 
1037 	 29.733000 	 45.000000 
1038 	 29.721000 	 45.000000 
1039 	 29.701000 	 45.000000 
1040 	 29.751000 	 45.000000 
1041 	 29.812000 	 45.000000 
1042 	 29.815000 	 45.000000 
1043 	 29.809000 	 45.000000 
1044 	 29.818000 	 45.000000 
1045 	 29.778000 	 45.000000 
1046 	 29.747000 	 45.000000 
1047 	 29.763000 	 45.000000 
1048 	 29.743000 	 45.000000 
1049 	 29.788000 	 45.000000 
1050 	 29.710000 	 45.000000 
1051 	 29.689000 	 45.000000 
1052 	 29.748000 	 45.000000 
1053 	 29.811000 	 45.000000 
1054 	 29.860000 	 45.000000 
1055 	 29.869000 	 45.000000 
1056 	 29.839000 	 45.000000 
1057 	 29.818000 	 45.000000 
1058 	 29.846000 	 45.000000 
1059 	 29.890000 	 45.000000 
1060 	 29.903000 	 45.000000 
1061 	 29.896000 	 45.000000 
1062 	 29.863000 	 45.000000 
1063 	 29.844000 	 45.000000 
1064 	 29.872000 	 45.000000 
1065 	 29.893000 	 45.000000 
1066 	 29.810000 	 45.000000 
1067 	 29.800000 	 45.000000 
1068 	 29.816000 	 45.000000 
1069 	 29.903000 	 45.000000 
1070 	 29.967000 	 45.000000 
1071 	 29.976000 	 45.000000 
1072 	 29.988000 	 45.000000 
1073 	 30.063000 	 45.000000 
1074 	 30.086000 	 45.000000 
1075 	 30.079000 	 45.000000 
1076 	 30.104000 	 45.000000 
1077 	 30.116000 	 45.000000 
1078 	 30.102000 	 45.000000 
1079 	 30.044000 	 45.000000 
1080 	 30.007000 	 45.000000 
1081 	 30.032000 	 45.000000 
1082 	 30.061000 	 45.000000 
1083 	 30.029000 	 45.000000 
1084 	 29.955000 	 45.000000 
1085 	 29.924000 	 45.000000 
1086 	 29.900000 	 45.000000 
1087 	 29.922000 	 45.000000 
1088 	 30.023000 	 45.000000 
1089 	 30.026000 	 45.000000 
1090 	 30.019000 	 45.000000 
1091 	 30.073000 	 45.000000 
1092 	 30.048000 	 45.000000 
1093 	 30.004000 	 45.000000 
1094 	 30.013000 	 45.000000 
1095 	 30.063000 	 45.000000 
1096 	 30.094000 	 45.000000 
1097 	 30.037000 	 45.000000 
1098 	 30.027000 	 45.000000 
1099 	 29.951000 	 45.000000 
1100 	 29.984000 	 45.000000 
1101 	 30.031000 	 45.000000 
1102 	 30.102000 	 45.000000 
1103 	 30.088000 	 45.000000 
1104 	 30.055000 	 45.000000 
1105 	 30.046000 	 45.000000 
1106 	 30.039000 	 45.000000 
1107 	 29.960000 	 45.000000 
1108 	 29.941000 	 45.000000 
1109 	 29.971000 	 45.000000 
1110 	 30.009000 	 45.000000 
1111 	 29.992000 	 45.000000 
1112 	 29.980000 	 45.000000 
1113 	 29.979000 	 45.000000 
1114 	 29.951000 	 45.000000 
1115 	 29.892000 	 45.000000 
1116 	 29.912000 	 45.000000 
1117 	 29.932000 	 45.000000 
1118 	 29.960000 	 45.000000 
1119 	 29.976000 	 45.000000 
1120 	 29.953000 	 45.000000 
1121 	 29.930000 	 45.000000 
1122 	 29.983000 	 45.000000 
1123 	 29.977000 	 45.000000 
1124 	 30.009000 	 45.000000 
1125 	 29.959000 	 45.000000 
1126 	 29.980000 	 45.000000 
1127 	 30.070000 	 45.000000 
1128 	 30.103000 	 45.000000 
1129 	 30.101000 	 45.000000 
1130 	 30.108000 	 45.000000 
1131 	 30.125000 	 45.000000 
1132 	 30.109000 	 45.000000 
1133 	 30.097000 	 45.000000 
1134 	 30.036000 	 45.000000 
1135 	 30.030000 	 45.000000 
1136 	 30.063000 	 45.000000 
1137 	 30.092000 	 45.000000 
1138 	 30.110000 	 45.000000 
1139 	 30.077000 	 45.000000 
1140 	 30.067000 	 45.000000 
1141 	 30.044000 	 45.000000 
1142 	 30.047000 	 45.000000 
1143 	 30.046000 	 45.000000 
1144 	 30.066000 	 45.000000 
1145 	 30.141000 	 45.000000 
1146 	 30.040000 	 45.000000 
1147 	 30.058000 	 45.000000 
1148 	 30.077000 	 45.000000 
1149 	 30.130000 	 45.000000 
1150 	 30.151000 	 45.000000 
1151 	 30.166000 	 45.000000 
1152 	 30.142000 	 45.000000 
1153 	 30.099000 	 45.000000 
1154 	 30.016000 	 45.000000 
1155 	 30.038000 	 45.000000 
1156 	 30.081000 	 45.000000 
1157 	 30.058000 	 45.000000 
1158 	 30.074000 	 45.000000 
1159 	 30.098000 	 45.000000 
1160 	 30.115000 	 45.000000 
1161 	 30.147000 	 45.000000 
1162 	 30.128000 	 45.000000 
1163 	 30.131000 	 45.000000 
1164 	 30.214000 	 45.000000 
1165 	 30.230000 	 45.000000 
1166 	 30.162000 	 45.000000 
1167 	 30.162000 	 45.000000 
1168 	 30.213000 	 45.000000 
1169 	 30.230000 	 45.000000 
1170 	 30.253000 	 45.000000 
1171 	 30.290000 	 45.000000 
1172 	 30.276000 	 45.000000 
1173 	 30.326000 	 45.000000 
1174 	 30.386000 	 45.000000 
1175 	 30.389000 	 45.000000 
1176 	 30.322000 	 45.000000 
1177 	 30.256000 	 45.000000 
1178 	 30.225000 	 45.000000 
1179 	 30.257000 	 45.000000 
1180 	 30.216000 	 45.000000 
1181 	 30.215000 	 45.000000 
1182 	 30.230000 	 45.000000 
1183 	 30.245000 	 45.000000 
1184 	 30.224000 	 45.000000 
1185 	 30.277000 	 45.000000 
1186 	 30.312000 	 45.000000 
1187 	 30.282000 	 45.000000 
1188 	 30.275000 	 45.000000 
1189 	 30.264000 	 45.000000 
1190 	 30.263000 	 45.000000 
1191 	 30.291000 	 45.000000 
1192 	 30.280000 	 45.000000 
1193 	 30.267000 	 45.000000 
1194 	 30.270000 	 45.000000 
1195 	 30.255000 	 45.000000 
1196 	 30.218000 	 45.000000 
1197 	 30.239000 	 45.000000 
1198 	 30.235000 	 45.000000 
1199 	 30.209000 	 45.000000 
1200 	 30.207000 	 45.000000 
1201 	 30.250000 	 45.000000 
1202 	 30.237000 	 45.000000 
1203 	 30.206000 	 45.000000 
1204 	 30.156000 	 45.000000 
1205 	 30.203000 	 45.000000 
1206 	 30.277000 	 45.000000 
1207 	 30.295000 	 45.000000 
1208 	 30.285000 	 45.000000 
1209 	 30.306000 	 45.000000 
1210 	 30.284000 	 45.000000 
1211 	 30.067000 	 45.000000 
1212 	 30.092000 	 45.000000 
1213 	 30.111000 	 45.000000 
1214 	 30.123000 	 45.000000 
1215 	 30.136000 	 45.000000 
1216 	 30.206000 	 45.000000 
1217 	 30.298000 	 45.000000 
1218 	 30.340000 	 45.000000 
1219 	 30.336000 	 45.000000 
1220 	 30.358000 	 45.000000 
1221 	 30.315000 	 45.000000 
1222 	 30.274000 	 45.000000 
1223 	 30.211000 	 45.000000 
1224 	 30.276000 	 45.000000 
1225 	 30.394000 	 45.000000 
1226 	 30.369000 	 45.000000 
1227 	 30.355000 	 45.000000 
1228 	 30.348000 	 45.000000 
1229 	 30.336000 	 45.000000 
1230 	 30.320000 	 45.000000 
1231 	 30.297000 	 45.000000 
1232 	 30.254000 	 45.000000 
1233 	 30.249000 	 45.000000 
1234 	 30.250000 	 45.000000 
1235 	 30.248000 	 45.000000 
1236 	 30.235000 	 45.000000 
1237 	 30.251000 	 45.000000 
1238 	 30.335000 	 45.000000 
1239 	 30.368000 	 45.000000 
1240 	 30.325000 	 45.000000 
1241 	 30.298000 	 45.000000 
1242 	 30.302000 	 45.000000 
1243 	 30.315000 	 45.000000 
1244 	 30.296000 	 45.000000 
1245 	 30.318000 	 45.000000 
1246 	 30.327000 	 45.000000 
1247 	 30.309000 	 45.000000 
1248 	 30.347000 	 45.000000 
1249 	 30.379000 	 45.000000 
1250 	 30.402000 	 45.000000 
1251 	 30.417000 	 45.000000 
1252 	 30.430000 	 45.000000 
1253 	 30.434000 	 45.000000 
1254 	 30.477000 	 45.000000 
1255 	 30.464000 	 45.000000 
1256 	 30.424000 	 45.000000 
1257 	 30.427000 	 45.000000 
1258 	 30.450000 	 45.000000 
1259 	 30.467000 	 45.000000 
1260 	 30.418000 	 45.000000 
1261 	 30.347000 	 45.000000 
1262 	 30.291000 	 45.000000 
1263 	 30.303000 	 45.000000 
1264 	 30.333000 	 45.000000 
1265 	 30.335000 	 45.000000 
1266 	 30.352000 	 45.000000 
1267 	 30.392000 	 45.000000 
1268 	 30.391000 	 45.000000 
1269 	 30.387000 	 45.000000 
1270 	 30.349000 	 45.000000 
1271 	 30.282000 	 45.000000 
1272 	 30.418000 	 45.000000 
1273 	 30.494000 	 45.000000 
1274 	 30.518000 	 45.000000 
1275 	 30.534000 	 45.000000 
1276 	 30.558000 	 45.000000 
1277 	 30.546000 	 45.000000 
1278 	 30.539000 	 45.000000 
1279 	 30.531000 	 45.000000 
1280 	 30.564000 	 45.000000 
1281 	 30.567000 	 45.000000 
1282 	 30.523000 	 45.000000 
1283 	 30.539000 	 45.000000 
1284 	 30.571000 	 45.000000 
1285 	 30.584000 	 45.000000 
1286 	 30.568000 	 45.000000 
1287 	 30.604000 	 45.000000 
1288 	 30.601000 	 45.000000 
1289 	 30.555000 	 45.000000 
1290 	 30.476000 	 45.000000 
1291 	 30.460000 	 45.000000 
1292 	 30.377000 	 45.000000 
1293 	 30.401000 	 45.000000 
1294 	 30.423000 	 45.000000 
1295 	 30.423000 	 45.000000 
1296 	 30.410000 	 45.000000 
1297 	 30.437000 	 45.000000 
1298 	 30.406000 	 45.000000 
1299 	 30.421000 	 45.000000 
1300 	 30.406000 	 45.000000 
1301 	 30.397000 	 45.000000 
1302 	 30.432000 	 45.000000 
1303 	 30.457000 	 45.000000 
1304 	 30.465000 	 45.000000 
1305 	 30.471000 	 45.000000 
1306 	 30.479000 	 45.000000 
1307 	 30.467000 	 45.000000 
1308 	 30.428000 	 45.000000 
1309 	 30.456000 	 45.000000 
1310 	 30.457000 	 45.000000 
1311 	 30.500000 	 45.000000 
1312 	 30.535000 	 45.000000 
1313 	 30.560000 	 45.000000 
1314 	 30.542000 	 45.000000 
1315 	 30.556000 	 45.000000 
1316 	 30.572000 	 45.000000 
1317 	 30.551000 	 45.000000 
1318 	 30.480000 	 45.000000 
1319 	 30.448000 	 45.000000 
1320 	 30.396000 	 45.000000 
1321 	 30.434000 	 45.000000 
1322 	 30.410000 	 45.000000 
1323 	 30.413000 	 45.000000 
1324 	 30.460000 	 45.000000 
1325 	 30.485000 	 45.000000 
1326 	 30.488000 	 45.000000 
1327 	 30.462000 	 45.000000 
1328 	 30.473000 	 45.000000 
1329 	 30.435000 	 45.000000 
1330 	 30.417000 	 45.000000 
1331 	 30.459000 	 45.000000 
1332 	 30.471000 	 45.000000 
1333 	 30.442000 	 45.000000 
1334 	 30.412000 	 45.000000 
1335 	 30.422000 	 45.000000 
1336 	 30.442000 	 45.000000 
1337 	 30.557000 	 45.000000 
1338 	 30.579000 	 45.000000 
1339 	 30.545000 	 45.000000 
1340 	 30.538000 	 45.000000 
1341 	 30.467000 	 45.000000 
1342 	 30.420000 	 45.000000 
1343 	 30.397000 	 45.000000 
1344 	 30.362000 	 45.000000 
1345 	 30.312000 	 45.000000 
1346 	 30.404000 	 45.000000 
1347 	 30.475000 	 45.000000 
1348 	 30.527000 	 45.000000 
1349 	 30.527000 	 45.000000 
1350 	 30.568000 	 45.000000 
1351 	 30.630000 	 45.000000 
1352 	 30.660000 	 45.000000 
1353 	 30.648000 	 45.000000 
1354 	 30.647000 	 45.000000 
1355 	 30.645000 	 45.000000 
1356 	 30.643000 	 45.000000 
1357 	 30.654000 	 45.000000 
1358 	 30.660000 	 45.000000 
1359 	 30.616000 	 45.000000 
1360 	 30.607000 	 45.000000 
1361 	 30.586000 	 45.000000 
1362 	 30.586000 	 45.000000 
1363 	 30.582000 	 45.000000 
1364 	 30.563000 	 45.000000 
1365 	 30.577000 	 45.000000 
1366 	 30.604000 	 45.000000 
1367 	 30.612000 	 45.000000 
1368 	 30.616000 	 45.000000 
1369 	 30.632000 	 45.000000 
1370 	 30.600000 	 45.000000 
1371 	 30.589000 	 45.000000 
1372 	 30.627000 	 45.000000 
1373 	 30.626000 	 45.000000 
1374 	 30.622000 	 45.000000 
1375 	 30.634000 	 45.000000 
1376 	 30.610000 	 45.000000 
1377 	 30.573000 	 45.000000 
1378 	 30.495000 	 45.000000 
1379 	 30.492000 	 45.000000 
1380 	 30.501000 	 45.000000 
1381 	 30.516000 	 45.000000 
1382 	 30.618000 	 45.000000 
1383 	 30.612000 	 45.000000 
1384 	 30.614000 	 45.000000 
1385 	 30.589000 	 45.000000 
1386 	 30.601000 	 45.000000 
1387 	 30.609000 	 45.000000 
1388 	 30.579000 	 45.000000 
1389 	 30.581000 	 45.000000 
1390 	 30.581000 	 45.000000 
1391 	 30.498000 	 45.000000 
1392 	 30.532000 	 45.000000 
1393 	 30.552000 	 45.000000 
1394 	 30.592000 	 45.000000 
1395 	 30.615000 	 45.000000 
1396 	 30.656000 	 45.000000 
1397 	 30.642000 	 45.000000 
1398 	 30.632000 	 45.000000 
1399 	 30.567000 	 45.000000 
1400 	 30.554000 	 45.000000 
1401 	 30.575000 	 45.000000 
1402 	 30.625000 	 45.000000 
1403 	 30.647000 	 45.000000 
1404 	 30.661000 	 45.000000 
1405 	 30.633000 	 45.000000 
1406 	 30.632000 	 45.000000 
1407 	 30.582000 	 45.000000 
1408 	 30.625000 	 45.000000 
1409 	 30.641000 	 45.000000 
1410 	 30.684000 	 45.000000 
1411 	 30.684000 	 45.000000 
1412 	 30.728000 	 45.000000 
1413 	 30.712000 	 45.000000 
1414 	 30.646000 	 45.000000 
1415 	 30.543000 	 45.000000 
1416 	 30.558000 	 45.000000 
1417 	 30.604000 	 45.000000 
1418 	 30.681000 	 45.000000 
1419 	 30.700000 	 45.000000 
1420 	 30.710000 	 45.000000 
1421 	 30.713000 	 45.000000 
1422 	 30.668000 	 45.000000 
1423 	 30.633000 	 45.000000 
1424 	 30.579000 	 45.000000 
1425 	 30.549000 	 45.000000 
1426 	 30.550000 	 45.000000 
1427 	 30.525000 	 45.000000 
1428 	 30.504000 	 45.000000 
1429 	 30.563000 	 45.000000 
1430 	 30.584000 	 45.000000 
1431 	 30.625000 	 45.000000 
1432 	 30.660000 	 45.000000 
1433 	 30.644000 	 45.000000 
1434 	 30.648000 	 45.000000 
1435 	 30.678000 	 45.000000 
1436 	 30.685000 	 45.000000 
1437 	 30.678000 	 45.000000 
1438 	 30.627000 	 45.000000 
1439 	 30.636000 	 45.000000 
1440 	 30.584000 	 45.000000 
1441 	 30.566000 	 45.000000 
1442 	 30.588000 	 45.000000 
1443 	 30.625000 	 45.000000 
1444 	 30.622000 	 45.000000 
1445 	 30.578000 	 45.000000 
1446 	 30.400000 	 45.000000 
1447 	 30.428000 	 45.000000 
1448 	 30.468000 	 45.000000 
1449 	 30.505000 	 45.000000 
1450 	 30.539000 	 45.000000 
1451 	 30.586000 	 45.000000 
1452 	 30.636000 	 45.000000 
1453 	 30.629000 	 45.000000 
1454 	 30.587000 	 45.000000 
1455 	 30.604000 	 45.000000 
1456 	 30.650000 	 45.000000 
1457 	 30.591000 	 45.000000 
1458 	 30.625000 	 45.000000 
1459 	 30.633000 	 45.000000 
1460 	 30.492000 	 45.000000 
1461 	 30.600000 	 45.000000 
1462 	 30.640000 	 45.000000 
1463 	 30.650000 	 45.000000 
1464 	 30.708000 	 45.000000 
1465 	 30.742000 	 45.000000 
1466 	 30.805000 	 45.000000 
1467 	 30.801000 	 45.000000 
1468 	 30.787000 	 45.000000 
1469 	 30.822000 	 45.000000 
1470 	 30.795000 	 45.000000 
1471 	 30.763000 	 45.000000 
1472 	 30.762000 	 45.000000 
1473 	 30.787000 	 45.000000 
1474 	 30.696000 	 45.000000 
1475 	 30.601000 	 45.000000 
1476 	 30.617000 	 45.000000 
1477 	 30.668000 	 45.000000 
1478 	 30.698000 	 45.000000 
1479 	 30.688000 	 45.000000 
1480 	 30.701000 	 45.000000 
1481 	 30.833000 	 45.000000 
1482 	 30.922000 	 45.000000 
1483 	 30.945000 	 45.000000 
1484 	 30.966000 	 45.000000 
1485 	 30.956000 	 45.000000 
1486 	 30.956000 	 45.000000 
1487 	 30.831000 	 45.000000 
1488 	 30.675000 	 45.000000 
1489 	 30.678000 	 45.000000 
1490 	 30.686000 	 45.000000 
1491 	 30.689000 	 45.000000 
1492 	 30.719000 	 45.000000 
1493 	 30.712000 	 45.000000 
1494 	 30.725000 	 45.000000 
1495 	 30.740000 	 45.000000 
1496 	 30.748000 	 45.000000 
1497 	 30.657000 	 45.000000 
1498 	 30.653000 	 45.000000 
1499 	 30.700000 	 45.000000 
1500 	 30.743000 	 45.000000 
1501 	 30.734000 	 45.000000 
1502 	 30.736000 	 45.000000 
1503 	 30.788000 	 45.000000 
1504 	 30.813000 	 45.000000 
1505 	 30.812000 	 45.000000 
1506 	 30.843000 	 45.000000 
1507 	 30.848000 	 45.000000 
1508 	 30.838000 	 45.000000 
1509 	 30.830000 	 45.000000 
1510 	 30.884000 	 45.000000 
1511 	 30.845000 	 45.000000 
1512 	 30.842000 	 45.000000 
1513 	 30.871000 	 45.000000 
1514 	 30.875000 	 45.000000 
1515 	 30.849000 	 45.000000 
1516 	 30.854000 	 45.000000 
1517 	 30.848000 	 45.000000 
1518 	 30.858000 	 45.000000 
1519 	 30.822000 	 45.000000 
1520 	 30.805000 	 45.000000 
1521 	 30.838000 	 45.000000 
1522 	 30.838000 	 45.000000 
1523 	 30.878000 	 45.000000 
1524 	 30.949000 	 45.000000 
1525 	 30.874000 	 45.000000 
1526 	 30.819000 	 45.000000 
1527 	 30.801000 	 45.000000 
1528 	 30.817000 	 45.000000 
1529 	 30.858000 	 45.000000 
1530 	 30.882000 	 45.000000 
1531 	 30.905000 	 45.000000 
1532 	 30.875000 	 45.000000 
1533 	 30.861000 	 45.000000 
1534 	 30.867000 	 45.000000 
1535 	 30.868000 	 45.000000 
1536 	 30.853000 	 45.000000 
1537 	 30.875000 	 45.000000 
1538 	 30.894000 	 45.000000 
1539 	 30.923000 	 45.000000 
1540 	 30.873000 	 45.000000 
1541 	 30.828000 	 45.000000 
1542 	 30.819000 	 45.000000 
1543 	 30.760000 	 45.000000 
1544 	 30.755000 	 45.000000 
1545 	 30.753000 	 45.000000 
1546 	 30.743000 	 45.000000 
1547 	 30.743000 	 45.000000 
1548 	 30.730000 	 45.000000 
1549 	 30.792000 	 45.000000 
1550 	 30.803000 	 45.000000 
1551 	 30.792000 	 45.000000 
1552 	 30.821000 	 45.000000 
1553 	 30.863000 	 45.000000 
1554 	 30.909000 	 45.000000 
1555 	 30.871000 	 45.000000 
1556 	 30.838000 	 45.000000 
1557 	 30.792000 	 45.000000 
1558 	 30.800000 	 45.000000 
1559 	 30.779000 	 45.000000 
1560 	 30.812000 	 45.000000 
1561 	 30.838000 	 45.000000 
1562 	 30.822000 	 45.000000 
1563 	 30.768000 	 45.000000 
1564 	 30.795000 	 45.000000 
1565 	 30.824000 	 45.000000 
1566 	 30.892000 	 45.000000 
1567 	 30.888000 	 45.000000 
1568 	 30.958000 	 45.000000 
1569 	 30.944000 	 45.000000 
1570 	 30.864000 	 45.000000 
1571 	 30.858000 	 45.000000 
1572 	 30.911000 	 45.000000 
1573 	 30.890000 	 45.000000 
1574 	 30.909000 	 45.000000 
1575 	 30.900000 	 45.000000 
1576 	 30.787000 	 45.000000 
1577 	 30.763000 	 45.000000 
1578 	 30.811000 	 45.000000 
1579 	 30.936000 	 45.000000 
1580 	 30.974000 	 45.000000 
1581 	 30.987000 	 45.000000 
1582 	 30.988000 	 45.000000 
1583 	 30.946000 	 45.000000 
1584 	 30.910000 	 45.000000 
1585 	 30.889000 	 45.000000 
1586 	 30.870000 	 45.000000 
1587 	 30.901000 	 45.000000 
1588 	 30.884000 	 45.000000 
1589 	 30.869000 	 45.000000 
1590 	 30.844000 	 45.000000 
1591 	 30.856000 	 45.000000 
1592 	 30.885000 	 45.000000 
1593 	 30.927000 	 45.000000 
1594 	 31.020000 	 45.000000 
1595 	 31.031000 	 45.000000 
1596 	 30.999000 	 45.000000 
1597 	 30.953000 	 45.000000 
1598 	 30.930000 	 45.000000 
1599 	 30.944000 	 45.000000 
1600 	 31.003000 	 45.000000 
1601 	 30.988000 	 45.000000 
1602 	 30.916000 	 45.000000 
1603 	 30.908000 	 45.000000 
1604 	 30.925000 	 45.000000 
1605 	 30.911000 	 45.000000 
1606 	 30.931000 	 45.000000 
1607 	 30.905000 	 45.000000 
1608 	 30.907000 	 45.000000 
1609 	 30.924000 	 45.000000 
1610 	 30.965000 	 45.000000 
1611 	 30.965000 	 45.000000 
1612 	 30.924000 	 45.000000 
1613 	 30.960000 	 45.000000 
1614 	 30.949000 	 45.000000 
1615 	 30.929000 	 45.000000 
1616 	 30.955000 	 45.000000 
1617 	 31.005000 	 45.000000 
1618 	 31.039000 	 45.000000 
